Dielectric           Density(g/L)           Temperature(K)           kappa(m^3/j)
59.4845           1000.01           270.006           5.07492e-10

59.3773           1000.32           279.988           4.79281e-10

58.2996           999.023           290.002           4.65861e-10

59.6751           996.711           300.024           4.62084e-10

58.0728           993.249           310.005           4.59762e-10

57.3787           989.084           319.972           4.63499e-10

56.4956           984.39           329.994           4.65592e-10

56.5532           978.802           340.011           4.7374e-10

55.6508           972.643           349.996           4.81716e-10

54.9524           966.046           359.986           4.9474e-10

54.157           958.747           369.975           5.14891e-10

